! The vertical coordinate is entered in the first column as height (z[m]) or pressure (Press[Pa]).
! Temperature can be entered as liquid water potential temperature (thlm[K]), potential temperature (thm[K]), or absolute temperature(T[K]).
! Prescribed, time-independent vertical velocity can be entered as velocity (w[m/s]) or pressure velocity ('omega[Pa/s]')
! If vertical velocity is time dependent, insert missing values throughout column.
! In all cases, missing values are denoted by -999.9
z[m]        thm[K]     'rt[kg/kg]'       'u[m/s]'    'v[m/s]'    'w[m/s]' 'ug[m/s]'   'vg[m/s]'    
0.0E+0      273.105     1.812E-3          -2.737      0.866       -999.9   -2.737      0.866       
4.2653274   273.105     1.812E-3          -2.737      0.866       -999.9   -2.737      0.866       
210.41774   275.426     1.819E-3          -2.533      1.263       -999.9   -2.533      1.263       
422.38525   278.077     1.883E-3          -1.956      1.885       -999.9   -1.956      1.885       
640.78155   281.312     1.958E-3          -0.971      2.682       -999.9   -0.971      2.682       
866.2701    284.898     2.113E-3          0.348       3.64        -999.9   0.348       3.64        
1099.2612   288.332     2.324E-3          1.828       4.815       -999.9   1.828       4.815       
1339.7999   291.162     2.568E-3          3.238       5.965       -999.9   3.238       5.965       
1587.735    293.358     2.823E-3          4.554       6.881       -999.9   4.554       6.881       
1842.9713   295.09      2.953E-3          5.873       7.424       -999.9   5.873       7.424       
2105.6186   296.65      2.974E-3          7.204       7.372       -999.9   7.204       7.372       
2376.0266   298.24      2.93E-3           8.302       6.568       -999.9   8.302       6.568       
2654.7126   299.944     2.852E-3          9.041       5.347       -999.9   9.041       5.347       
2942.2888   301.774     2.737E-3          9.572       4.026       -999.9   9.572       4.026       
3239.4265   303.717     2.579E-3          10.127      2.817       -999.9   10.127      2.817       
3546.8078   305.672     2.286E-3          10.812      1.823       -999.9   10.812      1.823       
3865.0903   307.552     1.903E-3          11.816      1.144       -999.9   11.816      1.144       
4194.929    309.298     1.611E-3          13.223      0.756       -999.9   13.223      0.756       
4537.002    310.863     1.424E-3          14.821      0.497       -999.9   14.821      0.497       
4892.03     312.216     1.284E-3          16.311      0.315       -999.9   16.311      0.315       
5260.8686   313.446     1.167E-3          17.601      0.201       -999.9   17.601      0.201       
5644.6015   314.634     1.057E-3          18.661      -7.0E-3     -999.9   18.661      -7.0E-3     
6044.542    315.811     9.45E-4           19.535      -0.593      -999.9   19.535      -0.593      
6462.244    317.002     8.22E-4           20.358      -1.554      -999.9   20.358      -1.554      
6899.5625   318.252     6.77E-4           21.228      -2.711      -999.9   21.228      -2.711      
7358.723    319.589     5.2E-4            22.22       -3.902      -999.9   22.22       -3.902      
7842.3813   321.013     3.8E-4            23.514      -5.077      -999.9   23.514      -5.077      
8353.698    322.504     2.66E-4           25.292      -6.177      -999.9   25.292      -6.177      
8896.51     324.084     1.77E-4           27.51       -7.205      -999.9   27.51       -7.205      
9475.627    325.833     1.13E-4           29.853      -8.321      -999.9   29.853      -8.321      
10097.56    328.184     7.0E-5            31.94       -9.466      -999.9   31.94       -9.466      
10772.705   332.777     4.6E-5            34.059      -9.898      -999.9   34.059      -9.898      
11516.687   339.9       3.2E-5            34.833      -10.009     -999.9   34.833      -10.009     
12350.426   349.375     2.0E-5            34.29       -9.603      -999.9   34.29       -9.603      
13303.153   361.594     1.1E-5            32.913      -8.765      -999.9   32.913      -8.765      
14421.236   378.7       1.0E-5            31.504      -7.776      -999.9   31.504      -7.776      
15774.58    397.108     8.0E-6            28.028      -6.726      -999.9   28.028      -6.726      
15900.      412.10083   0.0000036669176   28.219555   -6.783863   -999.9   28.219555   -6.783863   
16100.      415.8217    0.0000036627323   28.219555   -6.783863   -999.9   28.219555   -6.783863   
16300.      419.38345   0.0000036608503   28.219555   -6.783863   -999.9   28.219555   -6.783863   
16500.      423.08676   0.0000036589684   28.219555   -6.783863   -999.9   28.219555   -6.783863   
16700.      426.94196   0.0000036570862   28.219555   -6.783863   -999.9   28.219555   -6.783863   
16900.      430.96045   0.0000036552042   28.219555   -6.783863   -999.9   28.219555   -6.783863   
17100.      434.8482    0.0000036506801   28.219555   -6.783863   -999.9   28.219555   -6.783863   
17300.      438.58014   0.000003643514    28.219555   -6.783863   -999.9   28.219555   -6.783863   
17500.      442.4607    0.000003636348    28.219555   -6.783863   -999.9   28.219555   -6.783863   
17700.      446.50067   0.0000036291822   28.219555   -6.783863   -999.9   28.219555   -6.783863   
17900.      450.71216   0.000003622016    28.219555   -6.783863   -999.9   28.219555   -6.783863   
18100.      454.78207   0.0000036796687   28.219555   -6.783863   -999.9   28.219555   -6.783863   
18300.      458.68356   0.0000038021396   28.219555   -6.783863   -999.9   28.219555   -6.783863   
18500.      462.74033   0.0000039246106   28.219555   -6.783863   -999.9   28.219555   -6.783863   
18700.      466.96368   0.0000040470813   28.219555   -6.783863   -999.9   28.219555   -6.783863   
18900.      471.36627   0.0000041695525   28.219555   -6.783863   -999.9   28.219555   -6.783863   
19100.      475.62033   0.000004302594    28.219555   -6.783863   -999.9   28.219555   -6.783863   
19300.      479.69772   0.000004446205    28.219555   -6.783863   -999.9   28.219555   -6.783863   
19500.      483.9373    0.000004589816    28.219555   -6.783863   -999.9   28.219555   -6.783863   
19700.      488.35083   0.0000047334274   28.219555   -6.783863   -999.9   28.219555   -6.783863   
19900.      492.9515    0.0000048770385   28.219555   -6.783863   -999.9   28.219555   -6.783863   
20100.      497.6231    0.000005087878    28.219555   -6.783863   -999.9   28.219555   -6.783863   
20300.      502.34155   0.0000053659446   28.219555   -6.783863   -999.9   28.219555   -6.783863   
20500.      507.23703   0.0000056440117   28.219555   -6.783863   -999.9   28.219555   -6.783863   
20700.      512.3222    0.000005922079    28.219555   -6.783863   -999.9   28.219555   -6.783863   
20900.      517.6114    0.0000062001463   28.219555   -6.783863   -999.9   28.219555   -6.783863   
21100.      522.7415    0.000006511345    28.219555   -6.783863   -999.9   28.219555   -6.783863   
21300.      527.6807    0.0000068556756   28.219555   -6.783863   -999.9   28.219555   -6.783863   
21500.      532.80457   0.0000072000066   28.219555   -6.783863   -999.9   28.219555   -6.783863   
21700.      538.12634   0.000007544338    28.219555   -6.783863   -999.9   28.219555   -6.783863   
21900.      543.6607    0.000007888669    28.219555   -6.783863   -999.9   28.219555   -6.783863   
22100.      549.02234   0.000008291122    28.219555   -6.783863   -999.9   28.219555   -6.783863   
22300.      554.17737   0.0000087516955   28.219555   -6.783863   -999.9   28.219555   -6.783863   
22500.      559.52374   0.00000921227     28.219555   -6.783863   -999.9   28.219555   -6.783863   
22700.      565.07513   0.0000096728445   28.219555   -6.783863   -999.9   28.219555   -6.783863   
22900.      570.8468    0.00001013342     28.219555   -6.783863   -999.9   28.219555   -6.783863   
23100.      576.4452    0.000010626883    28.219555   -6.783863   -999.9   28.219555   -6.783863   
23300.      581.8362    0.0000111532345   28.219555   -6.783863   -999.9   28.219555   -6.783863   
23500.      587.42645   0.000011679586    28.219555   -6.783863   -999.9   28.219555   -6.783863   
23700.      593.23035   0.000012205939    28.219555   -6.783863   -999.9   28.219555   -6.783863   
23900.      599.2634    0.000012732292    28.219555   -6.783863   -999.9   28.219555   -6.783863   
24100.      605.1354    0.000013342658    28.219555   -6.783863   -999.9   28.219555   -6.783863   
24300.      610.813     0.000014037036    28.219555   -6.783863   -999.9   28.219555   -6.783863   
24500.      616.7015    0.000014731417    28.219555   -6.783863   -999.9   28.219555   -6.783863   
24700.      622.81604   0.000015425798    28.219555   -6.783863   -999.9   28.219555   -6.783863   
24900.      629.1733    0.00001612018     28.219555   -6.783863   -999.9   28.219555   -6.783863   
25100.      634.6571    0.000016550845    28.219555   -6.783863   -999.9   28.219555   -6.783863   
25300.      639.1603    0.000016717788    28.219555   -6.783863   -999.9   28.219555   -6.783863   
