! $Id$ .
Press[Pa]       thm[K]        'rt[kg/kg]'    'u[m/s]'     'v[m/s]'      'omega[Pa/s]'  'ug[m/s]'     'vg[m/s]'
106500.0        283.461975     0.01048027     -4.590240    10.888200    -999.9        -4.590240    10.888200
104000.0        285.393311     0.01048027     -4.590240    10.888200    -999.9        -4.590240    10.888200
101500.0        287.385284     0.01048027     -4.590240    10.888200    -999.9        -4.590240    10.888200
99000.0         289.441345     0.01048027     -4.590240    10.888200    -999.9        -4.590240    10.888200
96500.0         291.565277     0.01048027     -4.590240    10.888200    -999.9        -4.590240    10.888200
94000.0         293.761200     0.01048027     -4.590240    10.888200    -999.9        -4.590240    10.888200
91500.0         296.020172     0.010467564    -2.235960    16.014799    -999.9        -2.235960    16.014799
89000.0         297.924957     0.010108592    2.265700     19.106701    -999.9        2.265700     19.106701
86500.0         301.296356     0.009656409    7.792400     21.072201    -999.9        7.792400     21.072201
84000.0         304.312195     0.009804469    11.515400    16.927000    -999.9        11.515400    16.927000
81500.0         307.312317     0.008632292    13.249800    12.425400    -999.9        13.249800    12.425400
79000.0         310.010101     0.004630161    13.040500    10.297000    -999.9        13.040500    10.297000
76500.0         311.526733     0.005968936    13.820000    9.883910     -999.9        13.820000    9.883910
74000.0         312.165070     0.006131915    15.355100    10.427300    -999.9        15.355100    10.427300
71500.0         312.128845     0.005680778    16.169001    10.458200    -999.9        16.169001    10.458200
69000.0         312.384094     0.004946347    17.077200    9.530870     -999.9        17.077200    9.530870
66500.0         312.961914     0.003462886    18.559200    7.912960     -999.9        18.559200    7.912960
64000.0         313.274445     0.002835909    20.188000    6.927920     -999.9        20.188000    6.927920
61500.0         313.321625     0.002671732    21.313601    6.865690     -999.9        21.313601    6.865690
59000.0         313.368805     0.002367653    22.316999    6.992730     -999.9        22.316999    6.992730
56500.0         313.718384     0.002008794    23.546200    7.120360     -999.9        23.546200    7.120360
54000.0         314.567719     0.001431938    24.520201    6.666330     -999.9        24.520201    6.666330
51500.0         315.581940     0.000697134    22.974701    5.365330     -999.9        22.974701    5.365330
49000.0         316.550812     0.000477609    22.100599    4.728990     -999.9        22.100599    4.728990
46500.0         317.675690     0.000343871    23.260300    4.530790     -999.9        23.260300    4.530790
44000.0         318.898651     0.000297632    23.885099    5.428100     -999.9        23.885099    5.428100
41500.0         319.796143     0.000321345    23.508900    6.719540     -999.9        23.508900    6.719540
39000.0         320.636749     0.000241929    23.262600    6.128110     -999.9        23.262600    6.128110
36500.0         321.661987     0.000221562    23.389400    4.924570     -999.9        23.389400    4.924570
34000.0         322.919281     0.000167022    24.476801    5.530970     -999.9        24.476801    5.530970
31500.0         324.300720     9.2594e-05     26.209700    7.371490     -999.9        26.209700    7.371490
29000.0         325.812622     0.000101126    27.834000    8.514510     -999.9        27.834000    8.514510
26500.0         327.706604     6.9426e-05     29.498800    8.408380     -999.9        29.498800    8.408380
24000.0         330.562592     4.6179e-05     30.418501    9.496740     -999.9        30.418501    9.496740
21500.0         335.545044     2.425e-05      31.576300    14.438400    -999.9        31.576300    14.438400
19000.0         344.120544     1.236e-05      34.074799    17.366400    -999.9        34.074799    17.366400
16500.0         356.675140     6.71e-06       35.521999    15.102900    -999.9        35.521999    15.102900
14000.0         371.781342     5.267e-06      33.052101    10.916000    -999.9        33.052101    10.916000
11500.0         388.015747     3.425e-06      28.462700    8.997860     -999.9        28.462700    8.997860
9000.0          413.432404     3.476e-06      19.587200    7.718520     -999.9        19.587200    7.718520
6500.0          458.317902     6.104e-06      8.833780     6.100870     -999.9        8.833780     6.100870
4000.0          540.306580     1.9833e-05     -0.435852    3.818880     -999.9        -0.435852    3.818880
1350.0          620.0          1.98e-05       -0.436       3.82         -999.9        -0.436       3.82
